Temperature (degC),Resistance (ohms)
-40,205200
-35,154800
-30,117900
-25,90690
-20,70370
-15,55070
-10,43440
-5,34530
0,27640
5,22270
10,18060
15,14740
20,12110
25,10000
30,8309
35,6941
40,5828
45,4916
50,4165
55,3543
60,3027
65,2595
70,2233
75,1929
80,1672
85,1451
90,1261
95,1097
100,956.3
105,835.7
110,731.7
115,642.1
120,565
125,498.6
